time (s)   thrust (N)
  0.00        89.42
  0.02        83.83
  0.03        87.85
  0.05        92.50
  0.06        89.27
  0.08        87.44
  0.10        91.80
  0.11        89.84
  0.13        90.36
  0.15        87.89
  0.16        88.54
  0.18        97.89
  0.20        93.38
  0.21        88.88
  0.23        84.00
  0.24        83.15
  0.26        78.38
  0.28        95.06
  0.29        84.72
  0.31        92.26
  0.32        98.12
  0.34       108.66
  0.36       100.00
  0.37       100.99
  0.39       107.81
  0.41        99.20
  0.42       150.12
  0.44       275.70
  0.46       261.04
  0.47       256.02
  0.49       272.09
  0.51       279.62
  0.52       275.71
  0.54       275.02
  0.56       273.06
  0.58       272.78
  0.59       260.29
  0.61       256.80
  0.62       261.50
  0.64       287.19
  0.66       278.70
  0.67       269.83
  0.69       266.69
  0.71       265.90
  0.94       277.36
  0.96       259.46
  0.97       269.79
  0.99       271.68
  1.01       266.92
  1.03       263.07
  1.04       261.72
  1.06       264.47
  1.08       308.40
  1.09       325.97
  1.11       337.96
  1.13       331.61
  1.14       458.48
  1.16       663.85
  1.18       755.24
  1.20       828.10
  1.21       922.19
  1.23      1016.19
  1.25      1194.62
  1.26      1301.83
  1.28      1451.42
  1.30      1526.62
  1.31      1607.67
  1.33      1702.79
  1.35      1757.60
  1.37      1824.66
  1.38      1857.13
  1.40      1887.60
  1.42      1879.36
  1.44      1969.00
  1.45      1934.42
  1.47      2000.00
  1.48      1937.34
  1.50      1949.73
  1.52      1939.65
  1.54      1951.25
  1.55      1928.92
  1.57      1956.63
  1.59      1885.58
  1.60      1878.42
  1.62      1913.89
  1.64      1867.33
  1.65      1933.24
  1.67      1900.75
  1.69      1858.88
  1.70      1868.84
  1.72      1850.54
  1.74      1893.21
  1.75      1832.20
  1.77      1878.13
  1.79      1753.71
  1.81      1787.21
  1.82      1778.44
  1.84      1757.83
  1.85      1727.30
  1.87      1735.16
  1.89      1696.32
  1.90      1677.16
  1.92      1643.59
  1.94      1669.22
  1.95      1696.72
  1.97      1683.77
  1.99      1733.67
  2.00      1637.15
  2.02      1616.80
  2.04      1637.73
  2.06      1631.35
  2.07      1672.54
  2.09      1659.67
  2.11      1610.85
  2.12      1710.11
  2.14      1669.21
  2.16      1648.02
  2.17      1662.18
  2.19      1624.57
  2.21      1594.22
  2.22      1624.12
  2.24      1621.01
  2.26      1566.61
  2.27      1601.36
  2.29      1649.21
  2.30      1696.24
  2.32      1594.07
  2.34      1511.33
  2.36      1631.74
  2.38      1538.08
  2.39      1582.91
  2.41      1617.29
  2.42      1528.65
  2.44      1517.92
  2.46      1554.38
  2.47      1566.88
  2.49      1576.17
  2.50      1544.33
  2.52      1455.67
  2.54      1502.86
  2.56      1495.59
  2.57      1513.75
  2.59      1413.35
  2.62      1402.83
  2.64      1396.81
  2.66      1483.93
  2.67      1429.83
  2.69      1441.22
  2.71      1446.69
  2.72      1496.88
  2.74      1482.52
  2.75      1535.64
  2.77      1516.33
  2.79      1551.55
  2.80      1581.51
  2.82      1650.93
  2.83      1579.20
  2.85      1720.67
  2.87      1806.94
  2.88      1895.55
  2.90      1875.79
  2.92      1672.49
  2.94      1665.46
  2.96      1603.66
  2.97      1567.63
  2.99      1566.41
  3.01      1733.28
  3.02      1679.63
  3.04      1679.96
  3.06      1597.65
  3.07      1759.63
  3.09      1807.56
  3.10      1653.38
  3.12      1739.57
  3.14      1832.51
  3.15      1815.95
  3.17      1716.59
  3.19      1793.84
  3.21      1765.25
  3.22      1775.02
  3.24      1833.04
  3.25      1830.47
  3.27      1589.62
  3.29      1674.10
  3.30      1566.83
  3.32      1891.86
  3.34      1685.90
  3.35      1633.97
  3.37      1699.61
  3.39      1807.09
  3.41      1732.36
  3.42      1827.29
  3.44      1910.99
  3.46      1743.10
  3.47      1697.07
  3.49      1907.00
  3.51      1589.63
  3.52      1784.19
  3.54      1837.75
  3.56      1752.90
  3.57      1783.50
  3.59      1646.85
  3.60      1757.23
  3.62      1713.14
  3.64      1646.33
  3.66      1637.11
  3.67      1709.38
  3.69      1639.93
  3.71      1502.80
  3.72      1513.07
  3.74      1529.32
  3.76      1464.58
  3.77      1431.22
  3.79      1558.33
  3.81      1463.40
  3.82      1462.79
  3.84      1569.14
  3.86      1586.99
  3.87      1669.75
  3.89      1647.34
  3.91      1634.57
  3.92      1659.10
  3.94      1604.12
  3.96      1659.61
  3.97      1588.13
  3.99      1620.85
  4.01      1611.21
  4.02      1613.58
  4.04      1544.46
  4.06      1622.31
  4.08      1551.88
  4.09      1544.27
  4.11      1489.96
  4.13      1495.74
  4.14      1600.69
  4.16      1568.86
  4.17      1515.99
  4.19      1544.63
  4.21      1552.04
  4.22      1527.98
  4.24      1471.03
  4.26      1536.07
  4.27      1507.23
  4.29      1585.84
  4.31      1586.50
  4.33      1544.49
  4.34      1579.41
  4.36      1538.31
  4.38      1615.77
  4.39      1573.15
  4.41      1556.71
  4.43      1522.39
  4.44      1480.75
  4.46      1564.06
  4.48      1482.11
  4.49      1456.13
  4.51      1429.31
  4.53      1427.14
  4.54      1487.71
  4.56      1553.94
  4.58      1621.33
  4.59      1667.64
  4.61      1670.30
  4.63      1615.30
  4.64      1644.39
  4.66      1635.64
  4.68      1725.51
  4.70      1735.17
  4.71      1681.55
  4.73      1638.07
  4.75      1573.84
  4.76      1695.82
  4.78      1709.35
  4.80      1690.56
  4.81      1650.76
  4.83      1634.26
  4.85      1678.65
  4.86      1681.43
  4.91      1681.18
  4.93      1642.21
  4.94      1708.85
  4.96      1608.97
  4.97      1634.17
  4.99      1643.01
  5.01      1672.03
  5.03      1555.45
  5.04      1519.93
  5.06      1621.59
  5.08      1574.79
  5.09      1609.97
  5.11      1633.62
  5.13      1632.90
  5.14      1619.85
  5.16      1618.61
  5.18      1580.09
  5.20      1616.12
  5.21      1666.00
  5.23      1615.39
  5.25      1687.31
  5.26      1636.87
  5.28      1559.17
  5.29      1605.61
  5.31      1665.86
  5.34      1575.82
  5.36      1641.22
  5.38      1534.09
  5.39      1680.78
  5.41      1508.12
  5.43      1566.83
  5.44      1582.35
  5.46      1498.57
  5.47      1550.51
  5.49      1581.61
  5.51      1466.90
  5.53      1503.80
  5.54      1509.42
  5.56      1485.51
  5.58      1457.45
  5.59      1502.26
  5.61      1547.35
  5.63      1519.76
  5.64      1549.12
  5.66      1473.83
  5.68      1500.42
  5.70      1417.79
  5.71      1426.00
  5.73      1430.18
  5.75      1497.48
  5.77      1480.67
  5.78      1486.84
  5.80      1581.57
  5.82      1537.18
  5.83      1608.74
  5.85      1446.72
  5.87      1496.85
  5.88      1511.19
  5.90      1489.54
  5.92      1414.08
  5.93      1400.34
  5.95      1433.73
  5.97      1395.09
  5.98      1433.51
  6.00      1509.42
  6.02      1520.32
  6.04      1445.31
  6.05      1491.69
  6.07      1472.34
  6.09      1543.81
  6.10      1489.22
  6.12      1497.06
  6.14      1476.20
  6.15      1461.68
  6.17      1494.12
  6.19      1464.48
  6.20      1513.98
  6.22      1507.42
  6.23      1451.17
  6.25      1440.19
  6.27      1386.04
  6.28      1430.91
  6.30      1381.50
  6.32      1371.21
  6.34      1431.22
  6.36      1517.20
  6.37      1432.02
  6.39      1416.22
  6.40      1449.69
  6.42      1578.17
  6.43      1631.10
  6.45      1757.70
  6.47      1928.56
  6.48      1720.54
  6.50      1481.75
  6.52      1364.42
  6.53      1501.62
  6.55      1418.53
  6.57      1500.73
  6.58      1404.89
  6.60      1411.75
  6.62      1480.19
  6.63      1420.05
  6.65      1408.86
  6.67      1385.88
  6.68      1439.15
  6.70      1426.47
  6.72      1391.81
  6.74      1393.19
  6.75      1433.69
  6.77      1396.91
  6.78      1415.89
  6.80      1410.06
  6.82      1409.36
  6.83      1387.13
  6.85      1399.67
  6.87      1404.23
  6.88      1403.39
  6.90      1364.23
  6.92      1332.92
  6.93      1356.96
  6.95      1355.94
  6.97      1383.21
  6.98      1406.24
  7.00      1396.71
  7.02      1433.56
  7.03      1417.75
  7.05      1387.65
  7.07      1424.67
  7.08      1365.00
  7.10      1349.75
  7.12      1416.30
  7.13      1371.79
  7.15      1426.34
  7.17      1357.78
  7.18      1368.09
  7.20      1308.93
  7.22      1351.66
  7.23      1415.92
  7.25      1455.55
  7.26      1441.55
  7.28      1363.84
  7.30      1346.17
  7.31      1423.33
  7.33      1408.72
  7.35      1428.56
  7.37      1427.37
  7.38      1330.90
  7.40      1358.33
  7.41      1395.01
  7.43      1324.75
  7.45      1371.89
  7.47      1379.48
  7.48      1402.01
  7.50      1367.86
  7.51      1358.24
  7.53      1371.97
  7.55      1283.69
  7.57      1360.54
  7.58      1347.63
  7.60      1297.52
  7.61      1350.81
  7.63      1308.79
  7.65      1353.01
  7.67      1337.43
  7.68      1413.86
  7.70      1339.29
  7.72      1305.29
  7.74      1314.22
  7.75      1302.39
  7.77      1311.53
  7.79      1335.99
  7.80      1297.47
  7.82      1345.35
  7.84      1339.09
  7.85      1310.03
  7.87      1300.17
  7.89      1325.49
  7.91      1322.95
  7.92      1315.15
  7.94      1319.28
  7.96      1265.01
  7.97      1289.84
  7.99      1311.84
  8.01      1285.93
  8.03      1273.99
  8.05      1283.11
  8.07      1270.51
  8.09      1336.32
  8.11      1316.11
  8.12      1304.69
  8.14      1309.05
  8.15      1332.62
  8.17      1262.75
  8.19      1260.96
  8.20      1247.38
  8.22      1264.47
  8.24      1257.05
  8.25      1213.66
  8.27      1258.28
  8.28      1256.71
  8.30      1201.56
  8.32      1188.92
  8.34      1228.35
  8.36      1208.83
  8.37      1227.55
  8.39      1262.44
  8.40      1269.16
  8.42      1237.82
  8.44      1229.42
  8.45      1249.64
  8.47      1252.91
  8.49      1228.70
  8.50      1227.38
  8.52      1233.97
  8.53      1222.47
  8.55      1270.72
  8.57      1290.92
  8.59      1269.09
  8.60      1227.16
  8.62      1241.29
  8.64      1219.92
  8.65      1216.08
  8.67      1190.95
  8.69      1140.31
  8.70      1202.22
  8.72      1191.64
  8.74      1221.61
  8.75      1201.22
  8.77      1255.81
  8.78      1233.22
  8.80      1169.86
  8.82      1204.77
  8.83      1231.69
  8.85      1189.26
  8.87      1150.21
  8.88      1204.28
  8.90      1184.09
  8.92      1185.92
  8.93      1208.77
  8.95      1187.14
  8.97      1229.23
  8.98      1216.86
  9.00      1180.01
  9.02      1194.20
  9.03      1150.90
  9.05      1126.98
  9.06      1131.65
  9.08      1159.80
  9.10      1149.95
  9.12      1118.43
  9.13      1110.60
  9.15      1114.30
  9.17      1137.33
  9.18      1149.72
  9.20      1117.00
  9.21      1184.25
  9.23      1166.76
  9.25      1235.97
  9.26      1202.58
  9.28      1182.62
  9.30      1117.76
  9.31      1091.39
  9.33      1108.56
  9.35      1110.51
  9.36      1109.29
  9.38      1111.35
  9.40      1194.19
  9.42      1121.93
  9.43      1115.57
  9.45      1151.01
  9.46      1153.11
  9.48      1127.92
  9.49      1180.83
  9.51      1147.03
  9.53      1122.44
  9.54      1126.14
  9.56      1096.90
  9.58      1134.76
  9.59      1062.01
  9.61      1033.63
  9.63      1087.94
  9.64      1086.94
  9.66      1087.09
  9.68      1067.25
  9.70      1091.85
  9.71      1074.82
  9.73      1083.15
  9.74      1084.29
  9.76      1135.00
  9.78      1143.07
  9.79      1119.67
  9.81      1154.23
  9.82      1113.91
  9.84      1055.20
  9.86      1114.95
  9.88      1063.41
  9.89      1026.39
  9.91      1087.94
  9.92      1055.68
  9.94      1626.98
  9.97      1016.97
  9.99      1043.79
 10.01      1004.81
 10.02       950.38
 10.04       892.02
 10.06       865.53
 10.07       757.86
 10.09       801.34
 10.10       733.26
 10.12       681.48
 10.14       638.94
 10.15       567.62
 10.17       500.37
 10.18       481.24
 10.20       439.53
 10.22       397.03
 10.23       318.05
 10.25       264.22
 10.27       215.30
 10.29       168.29
 10.30       143.00
 10.32       116.18
 10.34       101.77
 10.35        96.68
 10.37        85.48
 10.38       105.19
 10.40        86.31
 10.41        95.65
 10.43        91.72
 10.45        98.56
 10.46        92.98
 10.48        99.54
 10.49        97.29
 10.51        97.79
 10.53       103.08
 10.55        91.07
 10.56        90.39
 10.58        92.92
 10.59        90.20
 10.61        92.43
 10.63        97.39
 10.64       100.24
